 C22H10N2O5 Density=1.43 Thickness=5.00000E-02 microns
 Photon Energy (eV), Transmission
    10.000      0.16859    
    17.980      0.10357E-01
    25.960      0.40891E-01
    33.940      0.14079    
    41.920      0.26809    
    49.900      0.38925    
    57.880      0.48617    
    65.860      0.56800    
    73.840      0.63698    
    81.820      0.69198    
    89.800      0.73617    
    97.780      0.77195    
    105.76      0.80338    
    113.74      0.82937    
    121.72      0.85077    
    129.70      0.86857    
    137.68      0.88377    
    145.66      0.89664    
    153.64      0.90757    
    161.62      0.91693    
    169.60      0.92506    
    177.58      0.93211    
    185.56      0.93866    
    193.54      0.94523    
    201.52      0.95090    
    209.50      0.95580    
    217.48      0.96007    
    225.46      0.96373    
    233.44      0.96694    
    241.42      0.96971    
    249.40      0.97219    
    257.38      0.97460    
    265.36      0.97673    
    273.34      0.97862    
    281.32      0.98032    
    289.30      0.77466    
    297.28      0.78640    
    305.26      0.79732    
    313.24      0.80750    
    321.22      0.81699    
    329.20      0.82585    
    337.18      0.83413    
    345.16      0.84187    
    353.14      0.84912    
    361.12      0.85591    
    369.10      0.86228    
    377.08      0.86833    
    385.06      0.87442    
    393.04      0.88027    
    401.02      0.88576    
    409.00      0.89090    
    416.98      0.88249    
    424.96      0.88753    
    432.94      0.89228    
    440.92      0.89676    
    448.90      0.90098    
    456.88      0.90498    
    464.86      0.90875    
    472.84      0.91232    
    480.82      0.91571    
    488.80      0.91893    
    496.78      0.92202    
    504.76      0.92495    
    512.74      0.92773    
    520.72      0.93037    
    528.70      0.93288    
    536.68      0.93527    
    544.66      0.90974    
    552.64      0.91281    
    560.62      0.91573    
    568.60      0.91853    
    576.58      0.92120    
    584.56      0.92375    
    592.54      0.92618    
    600.52      0.92851    
    608.50      0.93074    
    616.48      0.93287    
    624.46      0.93491    
    632.44      0.93688    
    640.42      0.93878    
    648.40      0.94062    
    656.38      0.94240    
    664.36      0.94411    
    672.34      0.94572    
    680.32      0.94724    
    688.30      0.94865    
    696.28      0.95000    
    704.26      0.95132    
    712.24      0.95265    
    720.22      0.95398    
    728.20      0.95527    
    736.18      0.95651    
    744.16      0.95770    
    752.14      0.95885    
    760.12      0.95996    
    768.10      0.96103    
    776.08      0.96206    
    784.06      0.96306    
    792.04      0.96404    
    800.02      0.96498    
    808.00      0.96588    
    815.98      0.96676    
    823.96      0.96760    
    831.94      0.96842    
    839.92      0.96920    
    847.90      0.96996    
    855.88      0.97069    
    863.86      0.97140    
    871.84      0.97208    
    879.82      0.97273    
    887.80      0.97337    
    895.78      0.97398    
    903.76      0.97458    
    911.74      0.97515    
    919.72      0.97571    
    927.70      0.97626    
    935.68      0.97680    
    943.66      0.97732    
    951.64      0.97783    
    959.62      0.97832    
    967.60      0.97880    
    975.58      0.97926    
    983.56      0.97971    
    991.54      0.98015    
    999.52      0.98057    
    1007.5      0.98098    
    1015.5      0.98138    
    1023.5      0.98177    
    1031.4      0.98215    
    1039.4      0.98251    
    1047.4      0.98287    
    1055.4      0.98322    
    1063.4      0.98357    
    1071.3      0.98390    
    1079.3      0.98422    
    1087.3      0.98454    
    1095.3      0.98484    
    1103.3      0.98514    
    1111.2      0.98543    
    1119.2      0.98571    
    1127.2      0.98599    
    1135.2      0.98626    
    1143.2      0.98652    
    1151.1      0.98677    
    1159.1      0.98702    
    1167.1      0.98726    
    1175.1      0.98750    
    1183.1      0.98773    
    1191.0      0.98795    
    1199.0      0.98817    
    1207.0      0.98838    
    1215.0      0.98859    
    1223.0      0.98879    
    1230.9      0.98899    
    1238.9      0.98919    
    1246.9      0.98938    
    1254.9      0.98956    
    1262.9      0.98974    
    1270.8      0.98992    
    1278.8      0.99010    
    1286.8      0.99027    
    1294.8      0.99043    
    1302.8      0.99060    
    1310.7      0.99076    
    1318.7      0.99091    
    1326.7      0.99106    
    1334.7      0.99121    
    1342.7      0.99136    
    1350.6      0.99150    
    1358.6      0.99164    
    1366.6      0.99178    
    1374.6      0.99191    
    1382.6      0.99204    
    1390.5      0.99217    
    1398.5      0.99229    
    1406.5      0.99241    
    1414.5      0.99253    
    1422.5      0.99265    
    1430.4      0.99276    
    1438.4      0.99287    
    1446.4      0.99298    
    1454.4      0.99309    
    1462.4      0.99320    
    1470.3      0.99330    
    1478.3      0.99340    
    1486.3      0.99350    
    1494.3      0.99360    
    1502.3      0.99369    
    1510.2      0.99379    
    1518.2      0.99388    
    1526.2      0.99397    
    1534.2      0.99406    
    1542.2      0.99414    
    1550.1      0.99423    
    1558.1      0.99431    
    1566.1      0.99439    
    1574.1      0.99448    
    1582.1      0.99455    
    1590.0      0.99463    
    1598.0      0.99471    
    1606.0      0.99478    
    1614.0      0.99485    
    1622.0      0.99493    
    1629.9      0.99500    
    1637.9      0.99506    
    1645.9      0.99513    
    1653.9      0.99520    
    1661.9      0.99526    
    1669.8      0.99533    
    1677.8      0.99539    
    1685.8      0.99545    
    1693.8      0.99551    
    1701.8      0.99557    
    1709.7      0.99563    
    1717.7      0.99569    
    1725.7      0.99574    
    1733.7      0.99580    
    1741.7      0.99586    
    1749.6      0.99591    
    1757.6      0.99596    
    1765.6      0.99601    
    1773.6      0.99607    
    1781.6      0.99612    
    1789.5      0.99617    
    1797.5      0.99621    
    1805.5      0.99626    
    1813.5      0.99631    
    1821.5      0.99636    
    1829.4      0.99640    
    1837.4      0.99645    
    1845.4      0.99649    
    1853.4      0.99653    
    1861.4      0.99658    
    1869.3      0.99662    
    1877.3      0.99666    
    1885.3      0.99670    
    1893.3      0.99674    
    1901.3      0.99678    
    1909.2      0.99682    
    1917.2      0.99685    
    1925.2      0.99689    
    1933.2      0.99693    
    1941.2      0.99696    
    1949.1      0.99700    
    1957.1      0.99703    
    1965.1      0.99707    
    1973.1      0.99710    
    1981.1      0.99714    
    1989.0      0.99717    
    1997.0      0.99720    
    2005.0      0.99723    
    2013.0      0.99726    
    2021.0      0.99730    
    2028.9      0.99733    
    2036.9      0.99736    
    2044.9      0.99739    
    2052.9      0.99741    
    2060.9      0.99744    
    2068.8      0.99747    
    2076.8      0.99750    
    2084.8      0.99753    
    2092.8      0.99755    
    2100.8      0.99758    
    2108.7      0.99761    
    2116.7      0.99763    
    2124.7      0.99766    
    2132.7      0.99768    
    2140.7      0.99771    
    2148.6      0.99773    
    2156.6      0.99776    
    2164.6      0.99778    
    2172.6      0.99781    
    2180.6      0.99783    
    2188.5      0.99785    
    2196.5      0.99787    
    2204.5      0.99790    
    2212.5      0.99792    
    2220.5      0.99794    
    2228.4      0.99796    
    2236.4      0.99798    
    2244.4      0.99800    
    2252.4      0.99802    
    2260.4      0.99804    
    2268.3      0.99806    
    2276.3      0.99808    
    2284.3      0.99810    
    2292.3      0.99812    
    2300.3      0.99814    
    2308.2      0.99816    
    2316.2      0.99818    
    2324.2      0.99820    
    2332.2      0.99821    
    2340.2      0.99823    
    2348.1      0.99825    
    2356.1      0.99827    
    2364.1      0.99828    
    2372.1      0.99830    
    2380.1      0.99832    
    2388.0      0.99833    
    2396.0      0.99835    
    2404.0      0.99837    
    2412.0      0.99838    
    2420.0      0.99840    
    2427.9      0.99841    
    2435.9      0.99843    
    2443.9      0.99844    
    2451.9      0.99846    
    2459.9      0.99847    
    2467.8      0.99849    
    2475.8      0.99850    
    2483.8      0.99851    
    2491.8      0.99853    
    2499.8      0.99854    
    2507.7      0.99856    
    2515.7      0.99857    
    2523.7      0.99858    
    2531.7      0.99860    
    2539.7      0.99861    
    2547.6      0.99862    
    2555.6      0.99863    
    2563.6      0.99865    
    2571.6      0.99866    
    2579.6      0.99867    
    2587.5      0.99868    
    2595.5      0.99869    
    2603.5      0.99871    
    2611.5      0.99872    
    2619.5      0.99873    
    2627.4      0.99874    
    2635.4      0.99875    
    2643.4      0.99876    
    2651.4      0.99877    
    2659.4      0.99878    
    2667.3      0.99879    
    2675.3      0.99881    
    2683.3      0.99882    
    2691.3      0.99883    
    2699.3      0.99884    
    2707.2      0.99885    
    2715.2      0.99886    
    2723.2      0.99887    
    2731.2      0.99888    
    2739.2      0.99889    
    2747.1      0.99889    
    2755.1      0.99890    
    2763.1      0.99891    
    2771.1      0.99892    
    2779.1      0.99893    
    2787.0      0.99894    
    2795.0      0.99895    
    2803.0      0.99896    
    2811.0      0.99897    
    2819.0      0.99898    
    2826.9      0.99898    
    2834.9      0.99899    
    2842.9      0.99900    
    2850.9      0.99901    
    2858.9      0.99902    
    2866.8      0.99903    
    2874.8      0.99903    
    2882.8      0.99904    
    2890.8      0.99905    
    2898.8      0.99906    
    2906.7      0.99906    
    2914.7      0.99907    
    2922.7      0.99908    
    2930.7      0.99909    
    2938.7      0.99909    
    2946.6      0.99910    
    2954.6      0.99911    
    2962.6      0.99912    
    2970.6      0.99912    
    2978.6      0.99913    
    2986.5      0.99914    
    2994.5      0.99914    
    3002.5      0.99915    
    3010.5      0.99916    
    3018.5      0.99916    
    3026.4      0.99917    
    3034.4      0.99918    
    3042.4      0.99918    
    3050.4      0.99919    
    3058.4      0.99920    
    3066.3      0.99920    
    3074.3      0.99921    
    3082.3      0.99921    
    3090.3      0.99922    
    3098.3      0.99923    
    3106.2      0.99923    
    3114.2      0.99924    
    3122.2      0.99924    
    3130.2      0.99925    
    3138.2      0.99925    
    3146.1      0.99926    
    3154.1      0.99927    
    3162.1      0.99927    
    3170.1      0.99928    
    3178.1      0.99928    
    3186.0      0.99929    
    3194.0      0.99929    
    3202.0      0.99930    
    3210.0      0.99930    
    3218.0      0.99931    
    3225.9      0.99931    
    3233.9      0.99932    
    3241.9      0.99932    
    3249.9      0.99933    
    3257.9      0.99933    
    3265.8      0.99934    
    3273.8      0.99934    
    3281.8      0.99935    
    3289.8      0.99935    
    3297.8      0.99936    
    3305.7      0.99936    
    3313.7      0.99937    
    3321.7      0.99937    
    3329.7      0.99938    
    3337.7      0.99938    
    3345.6      0.99938    
    3353.6      0.99939    
    3361.6      0.99939    
    3369.6      0.99940    
    3377.6      0.99940    
    3385.5      0.99941    
    3393.5      0.99941    
    3401.5      0.99941    
    3409.5      0.99942    
    3417.5      0.99942    
    3425.4      0.99943    
    3433.4      0.99943    
    3441.4      0.99943    
    3449.4      0.99944    
    3457.4      0.99944    
    3465.3      0.99945    
    3473.3      0.99945    
    3481.3      0.99945    
    3489.3      0.99946    
    3497.3      0.99946    
    3505.2      0.99946    
    3513.2      0.99947    
    3521.2      0.99947    
    3529.2      0.99948    
    3537.2      0.99948    
    3545.1      0.99948    
    3553.1      0.99949    
    3561.1      0.99949    
    3569.1      0.99949    
    3577.1      0.99950    
    3585.0      0.99950    
    3593.0      0.99950    
    3601.0      0.99951    
    3609.0      0.99951    
    3617.0      0.99951    
    3624.9      0.99952    
    3632.9      0.99952    
    3640.9      0.99952    
    3648.9      0.99953    
    3656.9      0.99953    
    3664.8      0.99953    
    3672.8      0.99953    
    3680.8      0.99954    
    3688.8      0.99954    
    3696.8      0.99954    
    3704.7      0.99955    
    3712.7      0.99955    
    3720.7      0.99955    
    3728.7      0.99956    
    3736.7      0.99956    
    3744.6      0.99956    
    3752.6      0.99956    
    3760.6      0.99957    
    3768.6      0.99957    
    3776.6      0.99957    
    3784.5      0.99957    
    3792.5      0.99958    
    3800.5      0.99958    
    3808.5      0.99958    
    3816.5      0.99959    
    3824.4      0.99959    
    3832.4      0.99959    
    3840.4      0.99959    
    3848.4      0.99960    
    3856.4      0.99960    
    3864.3      0.99960    
    3872.3      0.99960    
    3880.3      0.99961    
    3888.3      0.99961    
    3896.3      0.99961    
    3904.2      0.99961    
    3912.2      0.99962    
    3920.2      0.99962    
    3928.2      0.99962    
    3936.2      0.99962    
    3944.1      0.99962    
    3952.1      0.99963    
    3960.1      0.99963    
    3968.1      0.99963    
    3976.1      0.99963    
    3984.0      0.99964    
    3992.0      0.99964    
    4000.0      0.99964    